*
*** CCS Test input for UTST generated in PreUTST ***
** NTPB/NNPB/NFLX=(No. of T-/N-probes/Flux-Loops) **
   44     0     48
**  GETA (SSURF)
  0.0000E+00
* T-Probe
 3.050162e-02
 3.050162e-02
 3.517927e-02
 3.517927e-02
 2.802369e-02
 2.802369e-02
 2.983444e-02
 2.983444e-02
 3.711365e-02
 3.711365e-02
 5.016478e-02
 5.016478e-02
 6.934983e-02
 6.934983e-02
 4.687206e-02
 4.687206e-02
 4.487583e-02
 4.487583e-02
 4.065799e-02
 4.065799e-02
 3.465547e-02
 3.465547e-02
 2.697722e-02
 2.697722e-02
 1.657316e-02
 1.657316e-02
 2.373592e-03
 2.373592e-03
 2.823982e-02
 2.823982e-02
 6.705852e-02
 6.705852e-02
 9.517483e-02
 9.517483e-02
 4.384001e-02
 4.384001e-02
 4.287377e-02
 4.287377e-02
 4.037908e-02
 4.037908e-02
 3.723453e-02
 3.723453e-02
 3.575341e-02
 3.575341e-02
* N-Probe
* Flux-Loop
 2.222510e-02
 2.222510e-02
 2.349010e-02
 2.349010e-02
 2.566710e-02
 2.566710e-02
 2.306710e-02
 2.306710e-02
 1.935410e-02
 1.935410e-02
 2.322210e-02
 2.322210e-02
 2.778110e-02
 2.778110e-02
 3.413010e-02
 3.413010e-02
 4.279110e-02
 4.279110e-02
 5.381810e-02
 5.381810e-02
 6.403110e-02
 6.403110e-02
 3.715710e-02
 3.715710e-02
 1.924510e-02
 1.924510e-02
 7.902100e-03
 7.902100e-03
 1.900100e-03
 1.900100e-03
 1.801100e-03
 1.801100e-03
 1.633100e-03
 1.633100e-03
 1.435100e-03
 1.435100e-03
 1.235100e-03
 1.235100e-03
 1.046100e-03
 1.046100e-03
 8.581000e-04
 8.581000e-04
 6.591000e-04
 6.591000e-04
 4.861000e-04
 4.861000e-04
 4.191000e-04
 4.191000e-04
****** MINR * MAXR * MINZ * MAXZ ****
10   90  -100  100
*********
* ---コイル電流データの並び---単位[kA]
* EF
* PF#1
* PF#2
* PF#3
* PF#4
   -0.28
   0.0
   0.0
   0.0
   0.0
